OOIBase32 Version 1.0.0.8 Data File
++++++++++++++++++++++++++++++++++++
Date: Monday, January 21, 1980, 09:26:39
User: Valued Ocean Optics Customer
Spectrometer Serial Number: Unknown
Spectrometer Channel: Master
Integration Time (msec): 20
Spectra Averaged: 20
Boxcar Smoothing: 0
Correct for Electrical Dark: Disabled
Time Normalized: Disabled
Dual-beam Reference: Disabled
Reference Channel: Master
>>>>>Begin Spectral Data<<<<<
179.00	0.0000
179.38	0.0000
179.75	55.1500
180.13	55.0000
180.51	55.3500
180.88	57.2000
181.26	57.6000
181.64	56.3500
182.02	56.2500
182.39	56.7000
182.77	56.9500
183.15	56.6000
183.52	57.1000
183.90	56.3000
184.28	55.9000
184.65	56.2500
185.03	56.5000
185.41	56.6500
185.78	56.6000
186.16	56.6000
186.53	56.0000
186.91	56.9500
187.29	56.4500
187.66	55.8500
188.04	56.9000
188.42	56.5000
188.79	56.0000
189.17	57.5000
189.55	55.6500
189.92	56.7000
190.30	56.8000
190.67	56.1000
191.05	56.2500
191.43	56.3000
191.80	56.4500
192.18	56.0500
192.56	56.7000
192.93	56.6000
193.31	56.5500
193.68	55.7000
194.06	57.3500
194.44	57.1500
194.81	56.7000
195.19	56.3500
195.56	57.2500
195.94	55.7500
196.32	55.7500
196.69	56.4500
197.07	56.1500
197.44	56.9500
197.82	56.6000
198.19	57.2000
198.57	56.4500
198.95	57.0000
199.32	55.8500
199.70	56.3000
200.07	56.0000
200.45	56.6500
200.82	58.1500
201.20	57.7500
201.57	57.6000
201.95	56.6000
202.33	57.3000
202.70	56.5500
203.08	55.9500
203.45	57.4000
203.83	57.1000
204.20	57.2000
204.58	56.3000
204.95	56.3000
205.33	57.0000
205.70	57.1500
206.08	55.9500
206.45	57.7000
206.83	56.6500
207.20	57.3000
207.58	56.9000
207.95	57.4000
208.33	56.6500
208.70	57.5000
209.08	57.3500
209.45	58.0500
209.83	55.4500
210.20	57.4000
210.58	56.8500
210.95	57.3000
211.33	57.6500
211.70	56.9000
212.08	56.6500
212.45	57.0500
212.83	56.7500
213.20	57.0000
213.58	57.6500
213.95	57.1000
214.33	56.2500
214.70	57.1500
215.07	57.6500
215.45	57.9000
215.82	57.6000
216.20	57.0500
216.57	57.2000
216.95	56.7000
217.32	59.0000
217.70	56.8000
218.07	57.8000
218.44	57.7000
218.82	56.6000
219.19	56.8500
219.57	57.0500
219.94	56.6500
220.32	57.5500
220.69	56.8000
221.06	57.4000
221.44	56.6500
221.81	57.9000
222.19	56.7000
222.56	56.8500
222.93	57.5000
223.31	57.6500
223.68	56.7000
224.06	56.8500
224.43	56.1000
224.80	56.4500
225.18	56.9500
225.55	57.1500
225.92	57.4500
226.30	58.1000
226.67	57.6500
227.05	56.2000
227.42	56.2000
227.79	57.8500
228.17	55.8500
228.54	56.6000
228.91	57.0500
229.29	56.9000
229.66	57.3000
230.03	57.5500
230.41	56.6500
230.78	57.7000
231.15	57.4000
231.53	56.9000
231.90	58.2500
232.27	57.3500
232.65	56.7500
233.02	56.1500
233.39	57.1500
233.77	57.2000
234.14	57.4000
234.51	57.1500
234.89	55.8500
235.26	56.2000
235.63	56.3500
236.01	57.3500
236.38	57.1500
236.75	57.6000
237.12	56.8500
237.50	56.6500
237.87	57.2500
238.24	57.1000
238.62	58.0500
238.99	56.3500
239.36	57.0500
239.73	57.7000
240.11	57.5000
240.48	58.0000
240.85	56.6000
241.23	56.3000
241.60	57.4500
241.97	56.8500
242.34	58.4500
242.72	58.3500
243.09	57.2500
243.46	57.3500
243.83	56.7000
244.21	56.6000
244.58	57.1500
244.95	57.0500
245.32	56.3500
245.70	57.1000
246.07	57.3500
246.44	56.7500
246.81	57.3500
247.18	57.9500
247.56	58.1500
247.93	56.8000
248.30	57.1000
248.67	56.2500
249.04	58.3000
249.42	56.6000
249.79	57.2000
250.16	57.6000
250.53	57.4500
250.90	56.7000
251.28	57.5500
251.65	56.0500
252.02	55.6000
252.39	57.0500
252.76	56.3500
253.14	56.3500
253.51	56.5000
253.88	57.2000
254.25	58.1500
254.62	56.1000
254.99	56.9500
255.37	56.5000
255.74	57.8500
256.11	56.4500
256.48	57.7000
256.85	56.8000
257.22	56.3000
257.59	57.5000
257.97	59.0500
258.34	57.9000
258.71	57.1500
259.08	56.4000
259.45	55.7000
259.82	58.1500
260.19	56.7000
260.56	56.7500
260.94	57.9000
261.31	57.8500
261.68	57.6500
262.05	57.4500
262.42	57.6000
262.79	56.1500
263.16	56.5500
263.53	56.5000
263.90	55.7500
264.28	57.0000
264.65	57.5500
265.02	57.3000
265.39	57.2500
265.76	57.3500
266.13	55.9000
266.50	56.7500
266.87	56.1500
267.24	56.4000
267.61	56.7500
267.98	55.9000
268.35	57.4000
268.72	56.9000
269.09	56.7000
269.46	56.6500
269.84	57.3500
270.21	56.8000
270.58	57.1000
270.95	57.0500
271.32	57.0000
271.69	58.0000
272.06	56.7500
272.43	56.9000
272.80	57.2000
273.17	56.3000
273.54	57.8000
273.91	56.8500
274.28	57.6500
274.65	57.8500
275.02	57.9000
275.39	57.9000
275.76	57.6500
276.13	57.0500
276.50	57.9000
276.87	56.5500
277.24	57.6500
277.61	57.4500
277.98	57.1500
278.35	56.4500
278.72	56.8500
279.09	57.2500
279.46	58.3000
279.83	56.7000
280.20	56.6500
280.57	58.1000
280.94	57.6500
281.31	57.0500
281.67	56.6000
282.04	56.1500
282.41	57.6000
282.78	57.4000
283.15	57.2000
283.52	56.8500
283.89	59.7500
284.26	57.2000
284.63	57.5500
285.00	56.3500
285.37	57.9000
285.74	57.3000
286.11	56.6000
286.48	56.7500
286.85	56.6500
287.21	56.6500
287.58	57.1000
287.95	56.3000
288.32	56.9500
288.69	56.0500
289.06	56.8000
289.43	57.6000
289.80	57.4500
290.17	57.4000
290.54	57.4000
290.90	58.4500
291.27	57.2000
291.64	56.1000
292.01	57.1000
292.38	57.7000
292.75	57.8000
293.12	56.1500
293.48	56.7000
293.85	57.1000
294.22	57.2000
294.59	57.0000
294.96	57.8500
295.33	56.6000
295.70	57.6000
296.06	57.0500
296.43	56.8500
296.80	56.0500
297.17	57.0000
297.54	57.1000
297.91	58.3500
298.27	56.1500
298.64	57.6500
299.01	56.6500
299.38	57.5500
299.75	57.5000
300.11	57.3000
300.48	57.2500
300.85	56.0500
301.22	56.6000
301.59	56.2500
301.95	57.3000
302.32	57.3500
302.69	57.5000
303.06	57.2500
303.43	57.1500
303.79	57.2500
304.16	56.0500
304.53	56.8000
304.90	59.0500
305.26	57.6500
305.63	57.0000
306.00	56.1500
306.37	56.9500
306.73	57.0500
307.10	57.4000
307.47	57.8500
307.84	57.6500
308.20	57.2500
308.57	56.8500
308.94	57.0000
309.31	56.7000
309.67	57.8500
310.04	57.6500
310.41	56.2000
310.77	57.3500
311.14	57.6500
311.51	57.5500
311.88	56.8500
312.24	56.2000
312.61	56.9500
312.98	56.8000
313.34	56.1000
313.71	55.6500
314.08	55.8500
314.44	57.3000
314.81	57.2000
315.18	56.4000
315.55	57.1000
315.91	57.7500
316.28	57.0500
316.65	57.1500
317.01	56.9500
317.38	57.5500
317.75	57.4000
318.11	58.4500
318.48	57.0500
318.84	57.2500
319.21	57.0000
319.58	57.8000
319.94	57.3000
320.31	57.2500
320.68	56.8500
321.04	56.7000
321.41	56.9000
321.78	57.8500
322.14	56.4000
322.51	56.4500
322.87	58.0000
323.24	57.2500
323.61	57.2500
323.97	58.0500
324.34	57.0500
324.70	56.6000
325.07	56.9000
325.44	56.4500
325.80	56.8500
326.17	57.3500
326.53	57.3000
326.90	56.7000
327.27	56.1500
327.63	55.6500
328.00	57.4500
328.36	57.3000
328.73	57.4000
329.09	57.1500
329.46	58.1500
329.83	56.4000
330.19	56.1500
330.56	57.2500
330.92	57.2500
331.29	57.5500
331.65	57.5000
332.02	56.8500
332.38	57.7500
332.75	56.2000
333.11	57.6000
333.48	56.7500
333.84	57.0000
334.21	57.5000
334.58	56.5000
334.94	56.7000
335.31	56.5500
335.67	56.7500
336.04	57.0000
336.40	57.2000
336.77	57.7500
337.13	57.6000
337.50	57.9000
337.86	57.4000
338.22	56.7500
338.59	57.5500
338.95	57.6000
339.32	56.9500
339.68	57.7000
340.05	57.2500
340.41	57.0500
340.78	56.4000
341.14	56.2000
341.51	57.1500
341.87	57.7500
342.24	57.5500
342.60	56.4500
342.96	56.3000
343.33	57.7000
343.69	56.4000
344.06	57.0000
344.42	56.4500
344.79	56.5000
345.15	55.8500
345.51	56.3000
345.88	56.0500
346.24	56.7000
346.61	57.3500
346.97	57.0500
347.34	57.0500
347.70	56.6500
348.06	56.7500
348.43	56.4500
348.79	56.9500
349.16	58.6500
349.52	57.2000
349.88	56.8500
350.25	56.9000
350.61	56.2500
350.97	56.8500
351.34	57.1000
351.70	57.7000
352.07	56.5000
352.43	56.3000
352.79	57.3000
353.16	56.2500
353.52	57.1500
353.88	57.6000
354.25	56.8500
354.61	57.4500
354.97	57.3000
355.34	57.4500
355.70	57.3500
356.06	57.5500
356.43	57.7500
356.79	55.8500
357.15	56.3000
357.52	55.6500
357.88	56.6000
358.24	55.6500
358.60	57.2500
358.97	58.4500
359.33	56.5000
359.69	57.5000
360.06	57.6500
360.42	56.7000
360.78	56.1500
361.14	56.8000
361.51	56.4500
361.87	56.2500
362.23	56.6500
362.60	57.0000
362.96	57.1000
363.32	57.2000
363.68	56.6000
364.05	57.3000
364.41	56.2000
364.77	56.4000
365.13	56.7000
365.50	57.8000
365.86	57.6500
366.22	56.9500
366.58	56.6000
366.95	56.7000
367.31	56.9500
367.67	56.5000
368.03	57.0000
368.39	57.9000
368.76	57.0000
369.12	57.6500
369.48	56.3500
369.84	57.0500
370.20	57.4500
370.57	55.5500
370.93	56.7000
371.29	56.3500
371.65	56.5500
372.01	55.2000
372.38	56.3500
372.74	56.8500
373.10	58.2000
373.46	56.0500
373.82	56.2500
374.18	56.8000
374.55	56.6000
374.91	57.4500
375.27	57.1500
375.63	57.6500
375.99	57.4000
376.35	58.4000
376.71	56.8000
377.08	57.1000
377.44	57.4000
377.80	56.8500
378.16	56.5000
378.52	56.6500
378.88	57.1500
379.24	56.8500
379.60	57.1000
379.97	57.3500
380.33	55.9500
380.69	56.7000
381.05	57.4000
381.41	56.8000
381.77	55.8000
382.13	56.3000
382.49	57.5000
382.85	57.2000
383.21	57.1500
383.57	57.6000
383.94	57.0500
384.30	56.6500
384.66	57.6500
385.02	56.4500
385.38	56.6500
385.74	56.4500
386.10	56.8500
386.46	56.5500
386.82	56.5000
387.18	57.0500
387.54	55.3500
387.90	57.0000
388.26	56.6500
388.62	56.4000
388.98	56.2500
389.34	56.6500
389.70	56.4000
390.06	57.5000
390.42	56.4500
390.78	56.5500
391.14	57.7000
391.50	56.9000
391.86	56.7000
392.22	56.6500
392.58	56.5500
392.94	56.6000
393.30	56.2500
393.66	56.2000
394.02	55.7000
394.38	56.6500
394.74	57.2500
395.10	56.8500
395.46	57.7000
395.82	57.1500
396.18	56.6000
396.54	56.9000
396.90	57.2000
397.26	57.2500
397.62	56.8000
397.98	57.0500
398.34	57.6500
398.70	57.2000
399.05	57.8500
399.41	56.5000
399.77	56.4000
400.13	57.3500
400.49	57.1500
400.85	57.1500
401.21	56.6500
401.57	57.3000
401.93	57.7500
402.29	56.2000
402.65	56.4000
403.00	56.7000
403.36	57.5500
403.72	56.8000
404.08	56.7000
404.44	56.5500
404.80	56.4500
405.16	57.9500
405.52	56.3000
405.87	57.3000
406.23	58.6000
406.59	57.5500
406.95	56.8500
407.31	55.8000
407.67	56.5500
408.03	55.9500
408.38	56.8000
408.74	56.1000
409.10	57.9500
409.46	56.9000
409.82	56.9500
410.17	56.8500
410.53	56.9500
410.89	57.4500
411.25	56.4000
411.61	55.5500
411.97	56.8000
412.32	56.3000
412.68	58.7500
413.04	56.4500
413.40	56.7500
413.75	56.5000
414.11	57.2000
414.47	57.2000
414.83	57.7500
415.19	57.3000
415.54	56.5000
415.90	56.1500
416.26	56.0500
416.62	56.7500
416.97	56.3000
417.33	56.5000
417.69	58.0500
418.05	57.7500
418.40	56.7000
418.76	56.5000
419.12	57.2500
419.48	57.7000
419.83	56.9500
420.19	57.0500
420.55	57.5500
420.90	57.9000
421.26	57.3000
421.62	56.2000
421.98	55.5500
422.33	57.1500
422.69	57.4500
423.05	56.7500
423.40	57.4500
423.76	57.5000
424.12	57.5000
424.47	57.2500
424.83	56.6000
425.19	56.9000
425.54	56.6500
425.90	57.9500
426.26	56.6500
426.61	57.1500
426.97	57.2500
427.33	56.6000
427.68	57.8000
428.04	57.3000
428.40	57.0500
428.75	58.1000
429.11	57.1000
429.47	57.0000
429.82	57.5500
430.18	56.4500
430.53	56.8000
430.89	57.4500
431.25	57.4500
431.60	57.8500
431.96	57.6000
432.31	57.5500
432.67	57.3000
433.03	55.8500
433.38	56.9500
433.74	57.0500
434.09	57.3500
434.45	58.6500
434.81	57.2500
435.16	57.5500
435.52	57.1000
435.87	57.4000
436.23	57.7000
436.58	56.4000
436.94	57.9000
437.30	56.1000
437.65	56.8500
438.01	57.9500
438.36	56.7500
438.72	58.2000
439.07	57.3500
439.43	57.2000
439.78	57.3000
440.14	56.9000
440.49	57.6500
440.85	56.7500
441.20	57.3000
441.56	57.3500
441.91	58.2000
442.27	56.9500
442.62	57.9000
442.98	57.2500
443.33	58.4500
443.69	57.6500
444.04	69.8500
444.40	59.4500
444.75	58.7000
445.11	58.3000
445.46	57.6000
445.82	58.7000
446.17	58.6000
446.53	57.8000
446.88	58.3000
447.23	56.7000
447.59	57.6000
447.94	58.1500
448.30	58.2500
448.65	57.3500
449.01	57.3000
449.36	57.3000
449.72	57.1500
450.07	59.1500
450.42	58.0000
450.78	57.7000
451.13	58.4500
451.49	56.6500
451.84	58.9000
452.19	57.7000
452.55	57.8500
452.90	58.6500
453.26	58.1000
453.61	57.1500
453.96	57.9500
454.32	57.5500
454.67	58.1500
455.02	58.5500
455.38	57.9000
455.73	56.7500
456.09	58.9500
456.44	57.3000
456.79	57.7000
457.15	58.3000
457.50	57.7000
457.85	58.3500
458.21	58.6500
458.56	58.3000
458.91	57.4500
459.27	56.8000
459.62	57.9000
459.97	58.1000
460.32	58.3000
460.68	59.3500
461.03	57.5500
461.38	57.2000
461.74	58.1500
462.09	57.3500
462.44	57.2500
462.80	57.6000
463.15	58.1500
463.50	57.4000
463.85	57.2000
464.21	56.2500
464.56	57.7000
464.91	58.2000
465.26	56.5000
465.62	56.8000
465.97	58.2500
466.32	58.5500
466.67	57.0000
467.03	57.6500
467.38	57.1000
467.73	56.5500
468.08	57.1500
468.44	58.3000
468.79	57.9000
469.14	57.5000
469.49	57.2500
469.85	57.0500
470.20	57.7500
470.55	58.1000
470.90	58.3000
471.25	58.3000
471.61	58.1500
471.96	57.8000
472.31	57.1000
472.66	57.0500
473.01	57.1500
473.36	57.8500
473.72	57.7500
474.07	58.3500
474.42	56.9000
474.77	56.9000
475.12	57.2500
475.47	56.9500
475.83	57.3000
476.18	57.5000
476.53	57.6000
476.88	57.0000
477.23	57.2500
477.58	56.9500
477.93	57.0000
478.28	57.0000
478.64	57.3000
478.99	56.7000
479.34	57.0000
479.69	57.7000
480.04	58.1500
480.39	58.2000
480.74	57.6500
481.09	57.5500
481.44	57.7000
481.79	57.5500
482.15	57.4500
482.50	57.5000
482.85	58.3500
483.20	56.8500
483.55	56.9000
483.90	57.2000
484.25	57.8000
484.60	57.6000
484.95	58.2500
485.30	57.6500
485.65	57.6500
486.00	57.4000
486.35	57.3000
486.70	58.5500
487.05	58.8500
487.40	57.2000
487.75	57.9500
488.10	57.0500
488.45	56.9500
488.80	58.3500
489.15	56.7500
489.50	57.6500
489.85	58.4000
490.20	56.6500
490.55	56.6000
490.90	57.4500
491.25	57.1500
491.60	57.6000
491.95	57.8000
492.30	56.3000
492.65	57.2000
493.00	56.9000
493.35	57.7500
493.70	57.9000
494.05	57.7000
494.40	56.7000
494.75	56.5000
495.10	57.7500
495.45	57.7000
495.80	58.0500
496.15	56.8000
496.50	57.0000
496.84	57.3500
497.19	57.5000
497.54	58.0500
497.89	57.0000
498.24	58.1000
498.59	58.5500
498.94	56.8000
499.29	57.5500
499.64	56.8000
499.99	57.3000
500.33	58.4000
500.68	58.6500
501.03	58.8000
501.38	58.4500
501.73	57.1500
502.08	56.9000
502.43	57.7500
502.77	57.3500
503.12	57.1500
503.47	57.2500
503.82	57.5000
504.17	57.5000
504.52	58.7000
504.86	57.6500
505.21	57.9500
505.56	59.7500
505.91	58.2500
506.26	57.6500
506.61	57.6000
506.95	56.9000
507.30	58.2500
507.65	57.2500
508.00	57.4000
508.35	57.5000
508.69	58.2500
509.04	57.2500
509.39	57.9000
509.74	57.7500
510.08	57.2000
510.43	57.6500
510.78	57.6500
511.13	57.8000
511.47	58.5000
511.82	58.3000
512.17	57.9000
512.52	57.5000
512.86	59.3000
513.21	56.7500
513.56	57.5500
513.91	57.3500
514.25	57.9500
514.60	58.4500
514.95	58.1500
515.30	57.7000
515.64	57.4000
515.99	57.8000
516.34	58.6000
516.68	57.6000
517.03	57.2500
517.38	57.2000
517.72	57.7000
518.07	56.9500
518.42	58.1500
518.76	58.3000
519.11	57.6000
519.46	57.8500
519.80	58.2000
520.15	57.5500
520.50	58.6500
520.84	59.7000
521.19	59.1000
521.54	59.1000
521.88	57.1500
522.23	58.5000
522.58	58.4500
522.92	57.9500
523.27	58.1000
523.61	57.7000
523.96	57.4000
524.31	58.5000
524.65	58.0000
525.00	57.5000
525.34	58.4500
525.69	57.7500
526.04	58.4500
526.38	58.3500
526.73	57.8000
527.07	57.1000
527.42	57.7500
527.76	58.6500
528.11	57.8000
528.46	58.8000
528.80	57.6000
529.15	57.5000
529.49	58.6000
529.84	57.2000
530.18	58.5000
530.53	57.6000
530.87	57.1500
531.22	57.6500
531.56	56.9000
531.91	58.5000
532.25	58.1500
532.60	57.3500
532.94	58.2500
533.29	59.3500
533.63	58.3500
533.98	57.9500
534.32	59.0000
534.67	58.0000
535.01	57.9500
535.36	57.9500
535.70	58.2500
536.05	58.1000
536.39	57.8000
536.74	57.6500
537.08	57.9500
537.43	57.6500
537.77	58.8000
538.12	58.0000
538.46	58.5500
538.80	59.2500
539.15	58.2500
539.49	56.5500
539.84	57.0000
540.18	58.5000
540.53	57.6500
540.87	59.0000
541.21	57.0000
541.56	57.4000
541.90	57.5000
542.25	58.0000
542.59	57.6500
542.93	58.6000
543.28	57.4000
543.62	56.8000
543.97	59.0000
544.31	58.4500
544.65	58.1000
545.00	58.6500
545.34	56.9000
545.68	57.1500
546.03	57.3500
546.37	57.2500
546.71	57.9500
547.06	58.0500
547.40	57.4500
547.74	57.5000
548.09	58.1000
548.43	57.0000
548.77	57.4000
549.12	58.6500
549.46	58.1500
549.80	57.8000
550.15	57.8500
550.49	58.0000
550.83	57.1500
551.17	57.3500
551.52	57.7000
551.86	57.7500
552.20	57.2500
552.55	57.0000
552.89	57.0000
553.23	58.2000
553.57	57.7000
553.92	58.5000
554.26	58.6500
554.60	58.1500
554.94	58.4500
555.29	57.7500
555.63	58.5000
555.97	58.0500
556.31	58.4000
556.66	58.1000
557.00	58.1500
557.34	57.6500
557.68	58.9500
558.02	57.6000
558.37	58.4000
558.71	58.1500
559.05	58.8000
559.39	57.0500
559.73	57.3000
560.08	57.1500
560.42	58.9000
560.76	57.6000
561.10	58.2500
561.44	57.1500
561.78	58.3000
562.13	57.1500
562.47	58.8500
562.81	58.2000
563.15	58.8000
563.49	58.0500
563.83	57.3000
564.17	57.2000
564.52	56.6000
564.86	57.1000
565.20	57.7500
565.54	58.2000
565.88	58.3500
566.22	57.9000
566.56	57.7500
566.90	57.5500
567.24	58.1500
567.59	57.5500
567.93	58.1000
568.27	58.3500
568.61	58.3500
568.95	58.2500
569.29	57.5500
569.63	57.6000
569.97	57.4500
570.31	57.9500
570.65	57.8500
570.99	57.4500
571.33	57.9500
571.67	58.0000
572.01	58.1500
572.35	58.0500
572.69	57.9500
573.03	57.6500
573.37	58.0000
573.71	58.1000
574.05	58.7000
574.39	58.6500
574.73	57.1000
575.07	57.6000
575.41	58.5000
575.75	57.9000
576.09	57.1500
576.43	58.5500
576.77	58.6000
577.11	57.9000
577.45	56.9000
577.79	58.3500
578.13	59.0000
578.47	58.1500
578.81	58.3000
579.15	57.0000
579.49	57.2500
579.83	57.7500
580.17	58.5500
580.51	57.8500
580.85	57.9500
581.19	57.9500
581.53	58.3500
581.87	58.1500
582.20	58.2500
582.54	57.3500
582.88	57.5500
583.22	58.3000
583.56	58.3500
583.90	59.2500
584.24	59.0500
584.58	58.2500
584.92	58.0500
585.25	58.7500
585.59	57.9000
585.93	57.5000
586.27	59.0500
586.61	57.2500
586.95	58.4500
587.29	57.4500
587.62	58.5500
587.96	58.0500
588.30	58.1500
588.64	57.5000
588.98	58.8000
589.31	57.0000
589.65	57.5000
589.99	58.1000
590.33	57.1500
590.67	57.1500
591.01	57.4000
591.34	56.9000
591.68	58.3500
592.02	57.3500
592.36	58.2000
592.69	57.4500
593.03	56.8000
593.37	58.0000
593.71	57.9500
594.04	57.7000
594.38	58.0000
594.72	58.6500
595.06	55.7500
595.39	57.3000
595.73	57.7000
596.07	57.7000
596.41	58.4500
596.74	73.5500
597.08	58.7000
597.42	56.4500
597.76	57.6000
598.09	57.2500
598.43	56.9000
598.77	56.4000
599.10	57.1500
599.44	57.5000
599.78	57.7000
600.11	57.5500
600.45	57.1500
600.79	57.2500
601.12	57.8000
601.46	58.3500
601.80	57.7000
602.13	57.2000
602.47	58.0500
602.81	57.2000
603.14	57.9500
603.48	57.5000
603.82	58.5500
604.15	57.0000
604.49	58.8500
604.82	57.2000
605.16	57.9000
605.50	58.8500
605.83	58.0000
606.17	57.7500
606.50	58.0000
606.84	56.4500
607.18	57.4500
607.51	58.2500
607.85	57.4500
608.18	57.7500
608.52	57.4500
608.86	58.2500
609.19	56.9000
609.53	57.4500
609.86	57.5500
610.20	57.1500
610.53	57.1000
610.87	58.1500
611.20	56.6500
611.54	57.7000
611.87	57.5000
612.21	56.7000
612.54	57.2000
612.88	58.3500
613.21	59.1500
613.55	58.4000
613.88	58.8000
614.22	58.2000
614.55	56.9500
614.89	56.8500
615.22	57.8000
615.56	57.8500
615.89	58.5500
616.23	57.2500
616.56	57.2500
616.90	56.6500
617.23	57.0000
617.57	57.2000
617.90	57.2500
618.24	57.5000
618.57	58.2000
618.90	58.0000
619.24	57.9500
619.57	56.6500
619.91	57.4000
620.24	56.5000
620.58	56.2500
620.91	57.2500
621.24	56.7500
621.58	57.0500
621.91	56.9500
622.25	57.3500
622.58	57.0000
622.91	57.5000
623.25	57.7000
623.58	56.2500
623.91	57.2000
624.25	56.8500
624.58	57.0000
624.92	57.5500
625.25	57.2000
625.58	57.8500
625.92	56.5500
626.25	56.4000
626.58	57.9500
626.92	57.5500
627.25	58.0000
627.58	57.3000
627.91	57.8000
628.25	56.9000
628.58	57.0000
628.91	57.4500
629.25	58.6500
629.58	58.1500
629.91	58.7000
630.25	59.1500
630.58	57.0000
630.91	57.7500
631.24	57.4500
631.58	58.8500
631.91	57.3500
632.24	57.1500
632.57	57.0500
632.91	57.4000
633.24	57.3500
633.57	57.5000
633.90	57.7500
634.24	57.1500
634.57	56.1000
634.90	57.6000
635.23	57.6500
635.56	58.5500
635.90	57.8500
636.23	57.4500
636.56	58.3500
636.89	57.0500
637.22	57.2500
637.56	57.9500
637.89	57.6000
638.22	58.2500
638.55	57.0500
638.88	55.7500
639.21	57.8500
639.55	57.7000
639.88	58.3500
640.21	57.4000
640.54	56.6500
640.87	57.0500
641.20	57.1500
641.53	57.6000
641.87	57.0000
642.20	56.8500
642.53	57.1000
642.86	57.3000
643.19	56.9000
643.52	56.3000
643.85	57.6000
644.18	56.8000
644.51	57.3500
644.84	56.8500
645.18	57.7000
645.51	57.4000
645.84	57.0500
646.17	56.9500
646.50	56.5000
646.83	57.3500
647.16	56.9500
647.49	57.7000
647.82	56.4000
648.15	58.2000
648.48	56.7500
648.81	57.1000
649.14	57.1500
649.47	57.5000
649.80	57.1500
650.13	57.7500
650.46	56.6500
650.79	57.9500
651.12	57.8500
651.45	57.5000
651.78	58.0000
652.11	56.8500
652.44	56.0500
652.77	57.8500
653.10	57.6000
653.43	56.9000
653.76	58.1000
654.09	60.6500
654.42	57.6000
654.75	57.7500
655.08	55.9500
655.41	56.4500
655.74	57.4000
656.07	58.4500
656.39	57.5500
656.72	56.1000
657.05	56.6500
657.38	58.1500
657.71	57.6000
658.04	57.7500
658.37	58.1000
658.70	57.0000
659.03	58.0000
659.36	57.9000
659.68	58.0000
660.01	57.9500
660.34	56.9000
660.67	58.2500
661.00	57.8000
661.33	57.1500
661.66	57.3500
661.98	57.6500
662.31	57.7000
662.64	57.3000
662.97	56.4000
663.30	57.0500
663.63	57.9000
663.95	56.8500
664.28	57.9000
664.61	57.2000
664.94	56.0500
665.27	56.3000
665.59	57.5500
665.92	56.7000
666.25	58.3500
666.58	56.2500
666.91	56.9000
667.23	56.5500
667.56	56.7000
667.89	57.2500
668.22	57.5500
668.54	58.2000
668.87	58.1500
669.20	57.0500
669.53	57.5500
669.85	57.0500
670.18	57.0000
670.51	56.9000
670.83	56.5500
671.16	57.2000
671.49	57.5500
671.82	56.5500
672.14	57.2500
672.47	56.3000
672.80	56.4500
673.12	57.2000
673.45	55.8000
673.78	57.4000
674.10	56.8000
674.43	56.7000
674.76	58.7000
675.08	57.7000
675.41	58.0500
675.74	56.1500
676.06	57.2000
676.39	57.6000
676.72	57.3500
677.04	56.6000
677.37	57.0500
677.69	57.9000
678.02	57.0500
678.35	56.4500
678.67	56.5500
679.00	56.5500
679.32	57.0000
679.65	57.7000
679.98	56.3000
680.30	57.1000
680.63	56.0500
680.95	56.5000
681.28	57.0000
681.60	56.8500
681.93	56.8500
682.26	57.2500
682.58	56.0500
682.91	56.6000
683.23	57.4000
683.56	56.1000
683.88	56.9500
684.21	56.6000
684.53	57.2000
684.86	57.1000
685.18	56.4000
685.51	57.7500
685.83	56.0000
686.16	57.6000
686.48	56.9500
686.81	58.0500
687.13	57.3500
687.46	56.3000
687.78	57.3500
688.11	57.5500
688.43	56.8500
688.76	57.1000
689.08	56.8500
689.41	57.8500
689.73	57.1500
690.05	56.7000
690.38	58.0000
690.70	57.8500
691.03	57.1000
691.35	57.9500
691.68	57.6500
692.00	56.3000
692.32	56.5500
692.65	56.8000
692.97	56.9000
693.29	56.2500
693.62	57.1000
693.94	56.8500
694.27	57.1500
694.59	56.3500
694.91	58.8500
695.24	58.1000
695.56	56.7500
695.88	57.3000
696.21	56.8000
696.53	56.7000
696.85	56.3500
697.18	55.7500
697.50	58.2000
697.82	56.4000
698.15	57.4500
698.47	56.2000
698.79	56.2000
699.12	57.0500
699.44	57.4000
699.76	57.4500
700.09	57.0000
700.41	57.3000
700.73	57.3000
701.05	57.6500
701.38	56.5500
701.70	57.8000
702.02	57.2500
702.34	57.2500
702.67	57.1000
702.99	56.8000
703.31	57.8500
703.63	56.8000
703.96	57.7000
704.28	57.1000
704.60	57.1500
704.92	57.5000
705.25	56.5000
705.57	56.0500
705.89	55.9500
706.21	57.0500
706.53	57.3500
706.86	57.0000
707.18	57.3500
707.50	57.6000
707.82	57.3000
708.14	56.0000
708.46	56.5000
708.79	55.7000
709.11	56.8000
709.43	57.4000
709.75	56.5500
710.07	56.7500
710.39	58.2500
710.71	56.0000
711.04	56.9500
711.36	56.8500
711.68	58.4500
712.00	57.1000
712.32	56.6500
712.64	56.0000
712.96	57.8500
713.28	57.2500
713.60	56.7500
713.92	57.3000
714.24	56.8000
714.57	57.1500
714.89	56.9000
715.21	56.6000
715.53	56.5500
715.85	57.3500
716.17	56.9500
716.49	56.3000
716.81	56.3000
717.13	56.4000
717.45	57.0500
717.77	57.0500
718.09	57.2500
718.41	56.9500
718.73	57.5000
719.05	56.6500
719.37	57.2000
719.69	57.4000
720.01	56.7000
720.33	56.5000
720.65	57.7000
720.97	56.2500
721.29	56.7500
721.61	57.1000
721.93	56.7500
722.25	56.4500
722.57	57.7500
722.89	56.9500
723.21	56.7500
723.52	56.2000
723.84	56.5500
724.16	56.7500
724.48	56.0000
724.80	57.5000
725.12	56.2000
725.44	57.5500
725.76	57.9500
726.08	57.2500
726.40	58.0500
726.72	57.4500
727.03	57.3000
727.35	57.2500
727.67	57.5000
727.99	57.2000
728.31	57.1000
728.63	56.1000
728.95	56.6500
729.26	56.5500
729.58	56.4500
729.90	56.5500
730.22	55.9500
730.54	57.8000
730.86	56.9000
731.17	56.4500
731.49	57.2500
731.81	57.5500
732.13	57.4000
732.45	58.0500
732.76	57.4500
733.08	56.4000
733.40	56.4500
733.72	56.5000
734.03	56.3000
734.35	57.6500
734.67	56.3500
734.99	56.6000
735.30	56.4500
735.62	56.7500
735.94	56.4000
736.26	56.7500
736.57	57.1500
736.89	57.2000
737.21	57.2000
737.53	56.6000
737.84	56.6500
738.16	57.2500
738.48	55.9500
738.79	57.2500
739.11	56.3500
739.43	56.9500
739.74	57.4000
740.06	57.3000
740.38	57.2000
740.69	55.7500
741.01	57.0000
741.33	57.5500
741.64	57.6000
741.96	58.2500
742.28	57.3500
742.59	57.6000
742.91	57.0500
743.23	57.2500
743.54	57.9500
743.86	57.3000
744.17	57.2000
744.49	56.1000
744.81	57.2500
745.12	56.1500
745.44	57.1000
745.75	57.9500
746.07	56.6000
746.38	56.7500
746.70	56.6500
747.02	57.0000
747.33	57.2000
747.65	57.4000
747.96	56.6500
748.28	57.4000
748.59	56.7500
748.91	56.6500
749.22	57.7000
749.54	57.0500
749.85	58.0500
750.17	56.4000
750.48	57.1500
750.80	57.3500
751.11	57.0000
751.43	57.3500
751.74	57.2500
752.06	56.0500
752.37	57.2000
752.69	56.5000
753.00	57.3500
753.32	57.4000
753.63	57.6500
753.95	56.9500
754.26	57.0000
754.58	57.1000
754.89	56.6500
755.20	58.0000
755.52	57.7000
755.83	57.7500
756.15	58.2000
756.46	57.9500
756.78	57.1500
757.09	56.8500
757.40	57.2500
757.72	57.5000
758.03	57.5500
758.34	57.0000
758.66	56.5000
758.97	57.4500
759.29	56.9000
759.60	57.2000
759.91	57.9000
760.23	58.4500
760.54	57.8500
760.85	56.3500
761.17	57.3000
761.48	56.7500
761.79	57.1500
762.11	57.9500
762.42	57.0000
762.73	56.7500
763.05	57.3000
763.36	57.4000
763.67	57.7500
763.98	57.9000
764.30	57.5500
764.61	58.3000
764.92	58.0000
765.23	57.3000
765.55	57.4500
765.86	57.1000
766.17	57.3000
766.48	57.0000
766.80	55.9500
767.11	57.2500
767.42	57.3500
767.73	57.5000
768.05	56.1000
768.36	59.1500
768.67	57.6500
768.98	56.7000
769.29	57.3000
769.61	58.1000
769.92	57.1500
770.23	57.9500
770.54	57.1000
770.85	57.5500
771.17	56.2500
771.48	57.0000
771.79	58.3500
772.10	56.2500
772.41	57.2500
772.72	57.2000
773.03	56.8000
773.35	56.1000
773.66	57.4000
773.97	57.2500
774.28	57.5500
774.59	56.8000
774.90	57.5000
775.21	58.3000
775.52	56.2500
775.83	58.1500
776.15	56.8500
776.46	57.0000
776.77	58.2500
777.08	56.2500
777.39	56.7500
777.70	57.9000
778.01	57.3500
778.32	57.3000
778.63	57.3000
778.94	56.7500
779.25	57.3000
779.56	55.8000
779.87	58.1000
780.18	57.6000
780.49	56.9000
780.80	56.1500
781.11	57.7500
781.42	57.2000
781.73	56.7500
782.04	56.9500
782.35	56.5000
782.66	56.1000
782.97	56.4000
783.28	57.2000
783.59	57.1500
783.90	57.0000
784.21	57.0000
784.52	57.5000
784.83	56.9500
785.14	58.6000
785.45	58.0000
785.76	57.1500
786.06	57.0500
786.37	56.3000
786.68	58.0000
786.99	57.5500
787.30	56.9500
787.61	56.7000
787.92	56.6500
788.23	57.4000
788.54	57.8000
788.84	57.1000
789.15	57.8500
789.46	56.6000
789.77	57.2000
790.08	56.0000
790.39	56.3500
790.70	58.3500
791.00	57.8000
791.31	57.8000
791.62	57.9500
791.93	58.0000
792.24	57.5500
792.54	57.4500
792.85	57.6500
793.16	56.4000
793.47	56.3000
793.78	57.0000
794.08	57.1500
794.39	56.9500
794.70	56.8500
795.01	56.2000
795.31	56.7500
795.62	55.9000
795.93	57.2000
796.24	56.9500
796.54	56.8000
796.85	56.2500
797.16	56.0500
797.47	56.8500
797.77	55.2500
798.08	56.2500
798.39	56.8500
798.69	56.4500
799.00	56.2500
799.31	56.8000
799.62	57.8500
799.92	56.5500
800.23	56.3000
800.54	57.3500
800.84	58.0500
801.15	58.6500
801.46	56.9000
801.76	57.1000
802.07	58.1000
802.37	58.9000
802.68	57.0500
802.99	56.9000
803.29	56.8500
803.60	55.9000
803.91	57.7000
804.21	56.8000
804.52	57.0500
804.82	56.1500
805.13	57.6000
805.44	57.1500
805.74	57.7500
806.05	56.5000
806.35	56.4000
806.66	57.0000
806.96	57.2500
807.27	57.3000
807.57	57.7000
807.88	57.5500
808.19	58.4000
808.49	57.8500
808.80	58.1000
809.10	56.4500
809.41	57.1000
809.71	57.3500
810.02	57.4000
810.32	56.9500
810.63	57.7500
810.93	57.8000
811.24	56.8500
811.54	56.3500
811.85	57.0500
812.15	57.2000
812.45	57.0500
812.76	57.3500
813.06	56.1000
813.37	56.3000
813.67	56.7500
813.98	56.6500
814.28	56.6500
814.58	56.5000
814.89	57.3000
815.19	56.6500
815.50	56.2000
815.80	56.7000
816.11	56.8500
816.41	56.7000
816.71	57.7500
817.02	56.9500
817.32	56.9000
817.62	56.8500
817.93	57.4000
818.23	57.3000
818.53	57.3500
818.84	56.7500
819.14	56.7000
819.44	56.1000
819.75	57.7500
820.05	55.6500
820.35	57.2500
820.66	56.8500
820.96	56.0500
821.26	57.3500
821.57	57.5000
821.87	56.7000
822.17	57.5000
822.48	58.3000
822.78	57.1000
823.08	56.9000
823.38	56.2500
823.69	56.6500
823.99	56.9000
824.29	58.3000
824.59	57.0500
824.90	57.2500
825.20	57.4500
825.50	56.7500
825.80	57.0500
826.10	56.8000
826.41	56.6500
826.71	58.2500
827.01	56.5000
827.31	56.5000
827.61	56.8000
827.92	57.2000
828.22	56.6000
828.52	57.6000
828.82	57.2500
829.12	57.7500
829.42	58.5000
829.73	56.9000
830.03	55.6500
830.33	56.1000
830.63	56.4500
830.93	56.7000
831.23	56.9000
831.53	58.9000
831.83	56.2500
832.14	56.5500
832.44	57.7500
832.74	56.7000
833.04	57.1500
833.34	57.6500
833.64	56.8500
833.94	55.5500
834.24	56.1500
834.54	57.6500
834.84	57.4000
835.14	56.4500
835.44	57.3500
835.74	57.2000
836.04	57.1500
836.34	57.4000
836.64	56.8500
836.95	56.7000
837.25	57.6500
837.55	56.9500
837.85	57.0500
838.15	57.9000
838.45	57.4500
838.74	57.9000
839.04	57.2500
839.34	57.5000
839.64	55.7500
839.94	57.0000
840.24	56.8500
840.54	56.3500
840.84	57.2500
841.14	56.7500
841.44	57.7000
841.74	56.5500
842.04	57.8500
842.34	56.5000
842.64	56.1000
842.94	56.3500
843.24	57.4000
843.53	57.8000
843.83	56.9500
844.13	56.9000
844.43	58.2000
844.73	57.7500
845.03	55.8000
845.33	57.5000
845.63	56.9500
845.92	57.0500
846.22	55.9500
846.52	57.0000
846.82	56.3500
847.12	56.7000
847.42	55.9000
847.71	56.8500
848.01	56.4500
848.31	56.3500
848.61	57.3500
848.91	56.9500
849.20	56.6000
849.50	56.7500
849.80	57.4000
850.10	57.0500
850.39	56.1500
850.69	57.5500
850.99	57.0500
851.29	55.5500
851.59	57.7000
851.88	58.5500
852.18	57.4000
852.48	56.9000
852.77	56.5500
853.07	56.5500
853.37	56.1000
853.67	56.5000
853.96	57.0500
854.26	56.7500
854.56	56.2000
854.85	56.4000
855.15	57.8000
855.45	56.6500
855.74	56.9000
856.04	56.7500
856.34	57.1500
856.63	56.9000
856.93	58.3000
857.23	56.4500
857.52	56.7500
857.82	57.2500
858.11	56.4000
858.41	56.2500
858.71	56.8500
859.00	57.6500
859.30	56.1000
859.59	57.1000
859.89	56.5500
860.19	57.1500
860.48	56.6500
860.78	56.4000
861.07	57.2500
861.37	57.4500
861.66	55.9000
861.96	56.1500
862.26	56.6000
862.55	56.5500
862.85	56.7000
863.14	57.2000
863.44	57.3500
863.73	57.1000
864.03	57.0500
864.32	56.8000
864.62	55.4000
864.91	58.5000
865.21	57.2000
865.50	56.3000
865.80	56.9500
866.09	57.2000
866.39	56.4500
866.68	57.6500
866.97	56.2500
867.27	56.5000
867.56	57.1500
867.86	57.4500
868.15	57.1000
868.45	55.9000
868.74	56.8500
869.03	57.1000
869.33	56.9000
869.62	56.4000
869.92	55.8000
870.21	56.8000
870.50	57.7000
870.80	57.4000
871.09	57.1000
871.39	56.5000
871.68	57.7500
871.97	57.0500
872.27	57.2500
872.56	57.7000
872.85	57.9000
873.15	57.8000
873.44	57.2500
873.73	57.1000
874.03	57.0000
874.32	57.9000
874.61	56.5000
874.90	57.0500
875.20	56.4500
875.49	56.7500
875.78	55.7000
>>>>>End Spectral Data<<<<<
