OOIBase32 Version 1.0.0.8 Data File
++++++++++++++++++++++++++++++++++++
Date: Monday, January 21, 1980, 08:53:25
User: Valued Ocean Optics Customer
Spectrometer Serial Number: Unknown
Spectrometer Channel: Master
Integration Time (msec): 6
Spectra Averaged: 20
Boxcar Smoothing: 0
Correct for Electrical Dark: Disabled
Time Normalized: Disabled
Dual-beam Reference: Disabled
Reference Channel: Master
>>>>>Begin Spectral Data<<<<<
179.00	0.0000
179.38	0.0000
179.75	0.0000
180.13	0.0000
180.51	0.0000
180.88	0.0000
181.26	-0.0000
181.64	-0.0000
182.02	0.0000
182.39	0.0000
182.77	0.0000
183.15	0.0000
183.52	0.0000
183.90	0.0000
184.28	0.0000
184.65	0.0000
185.03	0.0000
185.41	-0.0000
185.78	0.0000
186.16	0.0000
186.53	0.0000
186.91	0.0000
187.29	0.0000
187.66	0.0000
188.04	0.0000
188.42	0.0000
188.79	0.0000
189.17	0.0000
189.55	0.0000
189.92	0.0000
190.30	0.0000
190.67	0.0000
191.05	0.0000
191.43	0.0000
191.80	0.0000
192.18	0.0000
192.56	0.0000
192.93	0.0000
193.31	0.0000
193.68	0.0000
194.06	0.0000
194.44	0.0000
194.81	0.0000
195.19	0.0000
195.56	0.0000
195.94	0.0000
196.32	0.0000
196.69	0.0000
197.07	0.0000
197.44	0.0000
197.82	0.0000
198.19	0.0000
198.57	0.0000
198.95	0.0000
199.32	0.0000
199.70	0.0000
200.07	0.0000
200.45	0.0000
200.82	0.0000
201.20	0.0000
201.57	0.0000
201.95	0.0000
202.33	0.0000
202.70	0.0000
203.08	0.0000
203.45	0.0000
203.83	0.0000
204.20	0.0000
204.58	0.0000
204.95	0.0000
205.33	0.0000
205.70	0.0000
206.08	0.0000
206.45	0.0000
206.83	0.0000
207.20	0.0000
207.58	0.0000
207.95	0.0000
208.33	0.0000
208.70	0.0000
209.08	0.0000
209.45	0.0000
209.83	0.0000
210.20	0.0000
210.58	0.0000
210.95	0.0000
211.33	0.0000
211.70	0.0000
212.08	0.0000
212.45	0.0000
212.83	0.0000
213.20	0.0000
213.58	0.0000
213.95	0.0000
214.33	0.0000
214.70	0.0000
215.07	0.0000
215.45	0.0000
215.82	0.0000
216.20	0.0000
216.57	0.0000
216.95	0.0000
217.32	0.0000
217.70	0.0000
218.07	0.0000
218.44	0.0000
218.82	0.0000
219.19	0.0000
219.57	0.0000
219.94	0.0000
220.32	0.0000
220.69	0.0000
221.06	0.0000
221.44	0.0000
221.81	0.0000
222.19	0.0000
222.56	0.0000
222.93	0.0000
223.31	0.0000
223.68	0.0000
224.06	0.0000
224.43	0.0000
224.80	0.0000
225.18	0.0000
225.55	0.0000
225.92	0.0000
226.30	0.0000
226.67	0.0000
227.05	0.0000
227.42	0.0000
227.79	0.0000
228.17	0.0000
228.54	0.0000
228.91	0.0000
229.29	0.0000
229.66	0.0000
230.03	0.0000
230.41	0.0000
230.78	0.0000
231.15	0.0000
231.53	0.0000
231.90	0.0000
232.27	0.0000
232.65	0.0000
233.02	0.0000
233.39	0.0000
233.77	0.0000
234.14	0.0000
234.51	0.0000
234.89	0.0000
235.26	0.0000
235.63	0.0000
236.01	0.0000
236.38	0.0000
236.75	0.0000
237.12	0.0000
237.50	0.0000
237.87	0.0000
238.24	0.0000
238.62	0.0000
238.99	0.0000
239.36	0.0000
239.73	0.0000
240.11	0.0000
240.48	0.0000
240.85	0.0000
241.23	0.0000
241.60	0.0000
241.97	0.0000
242.34	0.0000
242.72	0.0000
243.09	0.0000
243.46	0.0000
243.83	0.0000
244.21	0.0000
244.58	0.0000
244.95	0.0000
245.32	0.0000
245.70	0.0000
246.07	0.0000
246.44	0.0000
246.81	0.0000
247.18	0.0000
247.56	0.0000
247.93	0.0000
248.30	0.0000
248.67	0.0000
249.04	0.0000
249.42	0.0000
249.79	0.0000
250.16	0.0000
250.53	0.0000
250.90	0.0000
251.28	0.0000
251.65	0.0000
252.02	0.0000
252.39	0.0000
252.76	0.0000
253.14	0.0000
253.51	0.0000
253.88	0.0000
254.25	0.0000
254.62	0.0001
254.99	0.0000
255.37	0.0000
255.74	0.0000
256.11	0.0000
256.48	0.0000
256.85	0.0000
257.22	0.0000
257.59	0.0001
257.97	0.0001
258.34	0.0000
258.71	0.0001
259.08	0.0001
259.45	0.0000
259.82	0.0001
260.19	0.0000
260.56	0.0001
260.94	0.0001
261.31	0.0001
261.68	0.0001
262.05	0.0001
262.42	0.0001
262.79	0.0001
263.16	0.0000
263.53	0.0001
263.90	0.0001
264.28	0.0001
264.65	0.0001
265.02	0.0001
265.39	0.0001
265.76	0.0001
266.13	0.0001
266.50	0.0001
266.87	0.0001
267.24	0.0001
267.61	0.0001
267.98	0.0001
268.35	0.0001
268.72	0.0001
269.09	0.0001
269.46	0.0001
269.84	0.0001
270.21	0.0002
270.58	0.0001
270.95	0.0001
271.32	0.0001
271.69	0.0001
272.06	0.0001
272.43	0.0001
272.80	0.0001
273.17	0.0002
273.54	0.0001
273.91	0.0001
274.28	0.0002
274.65	0.0002
275.02	0.0002
275.39	0.0001
275.76	0.0002
276.13	0.0002
276.50	0.0001
276.87	0.0002
277.24	0.0002
277.61	0.0001
277.98	0.0002
278.35	0.0002
278.72	0.0001
279.09	0.0001
279.46	0.0002
279.83	0.0002
280.20	0.0002
280.57	0.0002
280.94	0.0002
281.31	0.0002
281.67	0.0002
282.04	0.0002
282.41	0.0002
282.78	0.0003
283.15	0.0003
283.52	0.0003
283.89	0.0002
284.26	0.0003
284.63	0.0003
285.00	0.0004
285.37	0.0002
285.74	0.0002
286.11	0.0002
286.48	0.0003
286.85	0.0003
287.21	0.0004
287.58	0.0004
287.95	0.0003
288.32	0.0003
288.69	0.0002
289.06	0.0003
289.43	0.0004
289.80	0.0004
290.17	0.0003
290.54	0.0003
290.90	0.0003
291.27	0.0003
291.64	0.0004
292.01	0.0003
292.38	0.0004
292.75	0.0005
293.12	0.0004
293.48	0.0005
293.85	0.0004
294.22	0.0004
294.59	0.0005
294.96	0.0004
295.33	0.0005
295.70	0.0005
296.06	0.0006
296.43	0.0004
296.80	0.0004
297.17	0.0006
297.54	0.0005
297.91	0.0005
298.27	0.0006
298.64	0.0005
299.01	0.0006
299.38	0.0005
299.75	0.0007
300.11	0.0006
300.48	0.0005
300.85	0.0005
301.22	0.0005
301.59	0.0006
301.95	0.0005
302.32	0.0004
302.69	0.0007
303.06	0.0007
303.43	0.0005
303.79	0.0008
304.16	0.0009
304.53	0.0006
304.90	0.0006
305.26	0.0006
305.63	0.0006
306.00	0.0008
306.37	0.0009
306.73	0.0007
307.10	0.0009
307.47	0.0007
307.84	0.0006
308.20	0.0007
308.57	0.0008
308.94	0.0007
309.31	0.0009
309.67	0.0009
310.04	0.0009
310.41	0.0013
310.77	0.0010
311.14	0.0012
311.51	0.0009
311.88	0.0010
312.24	0.0011
312.61	0.0010
312.98	0.0010
313.34	0.0012
313.71	0.0010
314.08	0.0012
314.44	0.0012
314.81	0.0010
315.18	0.0010
315.55	0.0012
315.91	0.0012
316.28	0.0010
316.65	0.0013
317.01	0.0013
317.38	0.0012
317.75	0.0011
318.11	0.0011
318.48	0.0013
318.84	0.0011
319.21	0.0013
319.58	0.0012
319.94	0.0016
320.31	0.0014
320.68	0.0015
321.04	0.0018
321.41	0.0012
321.78	0.0015
322.14	0.0013
322.51	0.0013
322.87	0.0016
323.24	0.0017
323.61	0.0015
323.97	0.0014
324.34	0.0018
324.70	0.0014
325.07	0.0015
325.44	0.0017
325.80	0.0015
326.17	0.0016
326.53	0.0018
326.90	0.0022
327.27	0.0020
327.63	0.0015
328.00	0.0017
328.36	0.0017
328.73	0.0021
329.09	0.0017
329.46	0.0020
329.83	0.0019
330.19	0.0021
330.56	0.0030
330.92	0.0019
331.29	0.0020
331.65	0.0020
332.02	0.0023
332.38	0.0017
332.75	0.0020
333.11	0.0020
333.48	0.0025
333.84	0.0019
334.21	0.0017
334.58	0.0021
334.94	0.0022
335.31	0.0023
335.67	0.0022
336.04	0.0032
336.40	0.0023
336.77	0.0021
337.13	0.0021
337.50	0.0028
337.86	0.0033
338.22	0.0027
338.59	0.0027
338.95	0.0033
339.32	0.0029
339.68	0.0025
340.05	0.0032
340.41	0.0031
340.78	0.0029
341.14	0.0026
341.51	0.0029
341.87	0.0026
342.24	0.0029
342.60	0.0032
342.96	0.0029
343.33	0.0029
343.69	0.0036
344.06	0.0030
344.42	0.0028
344.79	0.0037
345.15	0.0036
345.51	0.0036
345.88	0.0032
346.24	0.0038
346.61	0.0034
346.97	0.0033
347.34	0.0036
347.70	0.0036
348.06	0.0039
348.43	0.0034
348.79	0.0046
349.16	0.0042
349.52	0.0039
349.88	0.0037
350.25	0.0041
350.61	0.0043
350.97	0.0043
351.34	0.0039
351.70	0.0041
352.07	0.0042
352.43	0.0044
352.79	0.0046
353.16	0.0040
353.52	0.0048
353.88	0.0043
354.25	0.0047
354.61	0.0042
354.97	0.0044
355.34	0.0046
355.70	0.0047
356.06	0.0043
356.43	0.0042
356.79	0.0045
357.15	0.0045
357.52	0.0044
357.88	0.0050
358.24	0.0049
358.60	0.0050
358.97	0.0054
359.33	0.0050
359.69	0.0052
360.06	0.0047
360.42	0.0053
360.78	0.0053
361.14	0.0056
361.51	0.0052
361.87	0.0053
362.23	0.0060
362.60	0.0052
362.96	0.0060
363.32	0.0060
363.68	0.0060
364.05	0.0057
364.41	0.0063
364.77	0.0065
365.13	0.0063
365.50	0.0060
365.86	0.0055
366.22	0.0057
366.58	0.0061
366.95	0.0059
367.31	0.0061
367.67	0.0065
368.03	0.0067
368.39	0.0071
368.76	0.0068
369.12	0.0068
369.48	0.0064
369.84	0.0070
370.20	0.0071
370.57	0.0068
370.93	0.0070
371.29	0.0077
371.65	0.0074
372.01	0.0070
372.38	0.0077
372.74	0.0075
373.10	0.0075
373.46	0.0078
373.82	0.0077
374.18	0.0074
374.55	0.0083
374.91	0.0083
375.27	0.0083
375.63	0.0080
375.99	0.0083
376.35	0.0082
376.71	0.0087
377.08	0.0087
377.44	0.0084
377.80	0.0085
378.16	0.0091
378.52	0.0089
378.88	0.0089
379.24	0.0088
379.60	0.0095
379.97	0.0093
380.33	0.0094
380.69	0.0096
381.05	0.0093
381.41	0.0095
381.77	0.0102
382.13	0.0096
382.49	0.0101
382.85	0.0100
383.21	0.0102
383.57	0.0105
383.94	0.0103
384.30	0.0104
384.66	0.0104
385.02	0.0104
385.38	0.0106
385.74	0.0108
386.10	0.0109
386.46	0.0110
386.82	0.0112
387.18	0.0108
387.54	0.0109
387.90	0.0113
388.26	0.0114
388.62	0.0116
388.98	0.0118
389.34	0.0118
389.70	0.0119
390.06	0.0119
390.42	0.0120
390.78	0.0121
391.14	0.0126
391.50	0.0123
391.86	0.0122
392.22	0.0126
392.58	0.0127
392.94	0.0129
393.30	0.0131
393.66	0.0134
394.02	0.0133
394.38	0.0135
394.74	0.0136
395.10	0.0137
395.46	0.0139
395.82	0.0141
396.18	0.0140
396.54	0.0140
396.90	0.0142
397.26	0.0144
397.62	0.0148
397.98	0.0150
398.34	0.0149
398.70	0.0152
399.05	0.0153
399.41	0.0155
399.77	0.0154
400.13	0.0156
400.49	0.0153
400.85	0.0160
401.21	0.0160
401.57	0.0158
401.93	0.0158
402.29	0.0159
402.65	0.0164
403.00	0.0164
403.36	0.0169
403.72	0.0167
404.08	0.0171
404.44	0.0175
404.80	0.0173
405.16	0.0175
405.52	0.0174
405.87	0.0175
406.23	0.0178
406.59	0.0180
406.95	0.0183
407.31	0.0184
407.67	0.0182
408.03	0.0190
408.38	0.0188
408.74	0.0191
409.10	0.0188
409.46	0.0194
409.82	0.0193
410.17	0.0196
410.53	0.0194
410.89	0.0199
411.25	0.0203
411.61	0.0202
411.97	0.0204
412.32	0.0204
412.68	0.0205
413.04	0.0209
413.40	0.0210
413.75	0.0212
414.11	0.0218
414.47	0.0217
414.83	0.0217
415.19	0.0219
415.54	0.0219
415.90	0.0222
416.26	0.0226
416.62	0.0230
416.97	0.0227
417.33	0.0230
417.69	0.0230
418.05	0.0234
418.40	0.0234
418.76	0.0236
419.12	0.0238
419.48	0.0239
419.83	0.0242
420.19	0.0245
420.55	0.0245
420.90	0.0247
421.26	0.0251
421.62	0.0247
421.98	0.0254
422.33	0.0257
422.69	0.0258
423.05	0.0258
423.40	0.0262
423.76	0.0263
424.12	0.0262
424.47	0.0267
424.83	0.0268
425.19	0.0273
425.54	0.0273
425.90	0.0273
426.26	0.0275
426.61	0.0277
426.97	0.0282
427.33	0.0284
427.68	0.0283
428.04	0.0286
428.40	0.0290
428.75	0.0288
429.11	0.0288
429.47	0.0295
429.82	0.0294
430.18	0.0295
430.53	0.0299
430.89	0.0305
431.25	0.0303
431.60	0.0305
431.96	0.0308
432.31	0.0310
432.67	0.0312
433.03	0.0314
433.38	0.0317
433.74	0.0317
434.09	0.0323
434.45	0.0322
434.81	0.0324
435.16	0.0328
435.52	0.0331
435.87	0.0332
436.23	0.0333
436.58	0.0336
436.94	0.0339
437.30	0.0339
437.65	0.0342
438.01	0.0346
438.36	0.0345
438.72	0.0352
439.07	0.0355
439.43	0.0352
439.78	0.0363
440.14	0.0359
440.49	0.0358
440.85	0.0362
441.20	0.0369
441.56	0.0370
441.91	0.0369
442.27	0.0375
442.62	0.0379
442.98	0.0382
443.33	0.0382
443.69	0.0382
444.04	0.0384
444.40	0.0388
444.75	0.0388
445.11	0.0398
445.46	0.0397
445.82	0.0397
446.17	0.0403
446.53	0.0403
446.88	0.0407
447.23	0.0407
447.59	0.0413
447.94	0.0413
448.30	0.0413
448.65	0.0419
449.01	0.0423
449.36	0.0422
449.72	0.0432
450.07	0.0429
450.42	0.0434
450.78	0.0433
451.13	0.0441
451.49	0.0441
451.84	0.0444
452.19	0.0443
452.55	0.0450
452.90	0.0452
453.26	0.0452
453.61	0.0455
453.96	0.0458
454.32	0.0462
454.67	0.0461
455.02	0.0469
455.38	0.0468
455.73	0.0470
456.09	0.0479
456.44	0.0483
456.79	0.0483
457.15	0.0489
457.50	0.0487
457.85	0.0494
458.21	0.0493
458.56	0.0495
458.91	0.0502
459.27	0.0506
459.62	0.0505
459.97	0.0508
460.32	0.0511
460.68	0.0512
461.03	0.0518
461.38	0.0520
461.74	0.0528
462.09	0.0528
462.44	0.0531
462.80	0.0530
463.15	0.0538
463.50	0.0535
463.85	0.0542
464.21	0.0546
464.56	0.0547
464.91	0.0552
465.26	0.0558
465.62	0.0561
465.97	0.0561
466.32	0.0565
466.67	0.0568
467.03	0.0569
467.38	0.0577
467.73	0.0577
468.08	0.0580
468.44	0.0583
468.79	0.0587
469.14	0.0590
469.49	0.0595
469.85	0.0594
470.20	0.0600
470.55	0.0607
470.90	0.0610
471.25	0.0610
471.61	0.0611
471.96	0.0620
472.31	0.0622
472.66	0.0623
473.01	0.0628
473.36	0.0632
473.72	0.0636
474.07	0.0636
474.42	0.0643
474.77	0.0645
475.12	0.0650
475.47	0.0649
475.83	0.0652
476.18	0.0659
476.53	0.0664
476.88	0.0664
477.23	0.0668
477.58	0.0675
477.93	0.0680
478.28	0.0681
478.64	0.0683
478.99	0.0687
479.34	0.0689
479.69	0.0690
480.04	0.0697
480.39	0.0702
480.74	0.0708
481.09	0.0708
481.44	0.0710
481.79	0.0719
482.15	0.0719
482.50	0.0720
482.85	0.0727
483.20	0.0732
483.55	0.0738
483.90	0.0735
484.25	0.0742
484.60	0.0746
484.95	0.0747
485.30	0.0752
485.65	0.0755
486.00	0.0762
486.35	0.0767
486.70	0.0768
487.05	0.0771
487.40	0.0776
487.75	0.0780
488.10	0.0782
488.45	0.0788
488.80	0.0793
489.15	0.0798
489.50	0.0800
489.85	0.0805
490.20	0.0807
490.55	0.0814
490.90	0.0815
491.25	0.0820
491.60	0.0824
491.95	0.0830
492.30	0.0832
492.65	0.0838
493.00	0.0841
493.35	0.0846
493.70	0.0847
494.05	0.0850
494.40	0.0858
494.75	0.0863
495.10	0.0863
495.45	0.0868
495.80	0.0870
496.15	0.0874
496.50	0.0877
496.84	0.0883
497.19	0.0889
497.54	0.0895
497.89	0.0903
498.24	0.0901
498.59	0.0907
498.94	0.0910
499.29	0.0911
499.64	0.0920
499.99	0.0923
500.33	0.0925
500.68	0.0931
501.03	0.0938
501.38	0.0941
501.73	0.0943
502.08	0.0948
502.43	0.0952
502.77	0.0959
503.12	0.0961
503.47	0.0963
503.82	0.0974
504.17	0.0974
504.52	0.0976
504.86	0.0981
505.21	0.0986
505.56	0.0991
505.91	0.0997
506.26	0.0999
506.61	0.1005
506.95	0.1010
507.30	0.1014
507.65	0.1020
508.00	0.1025
508.35	0.1026
508.69	0.1028
509.04	0.1031
509.39	0.1040
509.74	0.1047
510.08	0.1049
510.43	0.1055
510.78	0.1055
511.13	0.1062
511.47	0.1067
511.82	0.1070
512.17	0.1074
512.52	0.1078
512.86	0.1086
513.21	0.1089
513.56	0.1094
513.91	0.1100
514.25	0.1102
514.60	0.1108
514.95	0.1114
515.30	0.1118
515.64	0.1125
515.99	0.1130
516.34	0.1132
516.68	0.1138
517.03	0.1143
517.38	0.1146
517.72	0.1152
518.07	0.1156
518.42	0.1162
518.76	0.1167
519.11	0.1173
519.46	0.1180
519.80	0.1185
520.15	0.1186
520.50	0.1191
520.84	0.1194
521.19	0.1204
521.54	0.1204
521.88	0.1208
522.23	0.1215
522.58	0.1222
522.92	0.1227
523.27	0.1229
523.61	0.1232
523.96	0.1237
524.31	0.1245
524.65	0.1246
525.00	0.1256
525.34	0.1260
525.69	0.1266
526.04	0.1269
526.38	0.1273
526.73	0.1272
527.07	0.1286
527.42	0.1289
527.76	0.1295
528.11	0.1299
528.46	0.1308
528.80	0.1305
529.15	0.1315
529.49	0.1317
529.84	0.1323
530.18	0.1332
530.53	0.1333
530.87	0.1341
531.22	0.1349
531.56	0.1348
531.91	0.1356
532.25	0.1362
532.60	0.1367
532.94	0.1373
533.29	0.1377
533.63	0.1384
533.98	0.1386
534.32	0.1394
534.67	0.1396
535.01	0.1403
535.36	0.1407
535.70	0.1417
536.05	0.1421
536.39	0.1430
536.74	0.1431
537.08	0.1436
537.43	0.1437
537.77	0.1441
538.12	0.1448
538.46	0.1454
538.80	0.1460
539.15	0.1461
539.49	0.1474
539.84	0.1483
540.18	0.1487
540.53	0.1488
540.87	0.1494
541.21	0.1495
541.56	0.1500
541.90	0.1507
542.25	0.1513
542.59	0.1522
542.93	0.1528
543.28	0.1533
543.62	0.1536
543.97	0.1543
544.31	0.1546
544.65	0.1552
545.00	0.1557
545.34	0.1566
545.68	0.1566
546.03	0.1572
546.37	0.1583
546.71	0.1591
547.06	0.1594
547.40	0.1601
547.74	0.1606
548.09	0.1610
548.43	0.1617
548.77	0.1621
549.12	0.1628
549.46	0.1634
549.80	0.1637
550.15	0.1643
550.49	0.1649
550.83	0.1657
551.17	0.1659
551.52	0.1668
551.86	0.1673
552.20	0.1678
552.55	0.1683
552.89	0.1689
553.23	0.1696
553.57	0.1702
553.92	0.1707
554.26	0.1709
554.60	0.1717
554.94	0.1723
555.29	0.1727
555.63	0.1732
555.97	0.1742
556.31	0.1749
556.66	0.1755
557.00	0.1758
557.34	0.1764
557.68	0.1771
558.02	0.1776
558.37	0.1784
558.71	0.1783
559.05	0.1793
559.39	0.1797
559.73	0.1807
560.08	0.1810
560.42	0.1815
560.76	0.1824
561.10	0.1825
561.44	0.1831
561.78	0.1840
562.13	0.1846
562.47	0.1851
562.81	0.1859
563.15	0.1861
563.49	0.1864
563.83	0.1873
564.17	0.1885
564.52	0.1892
564.86	0.1892
565.20	0.1898
565.54	0.1901
565.88	0.1911
566.22	0.1919
566.56	0.1924
566.90	0.1933
567.24	0.1938
567.59	0.1942
567.93	0.1948
568.27	0.1951
568.61	0.1960
568.95	0.1970
569.29	0.1978
569.63	0.1982
569.97	0.1985
570.31	0.1994
570.65	0.1995
570.99	0.2006
571.33	0.2011
571.67	0.2008
572.01	0.2018
572.35	0.2023
572.69	0.2036
573.03	0.2040
573.37	0.2046
573.71	0.2056
574.05	0.2054
574.39	0.2065
574.73	0.2071
575.07	0.2075
575.41	0.2082
575.75	0.2091
576.09	0.2097
576.43	0.2099
576.77	0.2108
577.11	0.2119
577.45	0.2122
577.79	0.2131
578.13	0.2136
578.47	0.2138
578.81	0.2140
579.15	0.2149
579.49	0.2159
579.83	0.2166
580.17	0.2171
580.51	0.2179
580.85	0.2182
581.19	0.2189
581.53	0.2198
581.87	0.2199
582.20	0.2214
582.54	0.2218
582.88	0.2226
583.22	0.2237
583.56	0.2236
583.90	0.2240
584.24	0.2246
584.58	0.2256
584.92	0.2261
585.25	0.2275
585.59	0.2269
585.93	0.2280
586.27	0.2291
586.61	0.2297
586.95	0.2301
587.29	0.2312
587.62	0.2311
587.96	0.2313
588.30	0.2323
588.64	0.2330
588.98	0.2328
589.31	0.2346
589.65	0.2344
589.99	0.2361
590.33	0.2364
590.67	0.2369
591.01	0.2375
591.34	0.2388
591.68	0.2393
592.02	0.2396
592.36	0.2395
592.69	0.2412
593.03	0.2416
593.37	0.2416
593.71	0.2430
594.04	0.2441
594.38	0.2442
594.72	0.2453
595.06	0.2459
595.39	0.2462
595.73	0.2462
596.07	0.2475
596.41	0.2478
596.74	0.2488
597.08	0.2499
597.42	0.2498
597.76	0.2508
598.09	0.2516
598.43	0.2520
598.77	0.2527
599.10	0.2537
599.44	0.2544
599.78	0.2548
600.11	0.2553
600.45	0.2558
600.79	0.2565
601.12	0.2574
601.46	0.2576
601.80	0.2583
602.13	0.2597
602.47	0.2606
602.81	0.2604
603.14	0.2612
603.48	0.2615
603.82	0.2626
604.15	0.2636
604.49	0.2636
604.82	0.2648
605.16	0.2651
605.50	0.2665
605.83	0.2663
606.17	0.2682
606.50	0.2676
606.84	0.2683
607.18	0.2690
607.51	0.2702
607.85	0.2713
608.18	0.2709
608.52	0.2722
608.86	0.2724
609.19	0.2731
609.53	0.2738
609.86	0.2739
610.20	0.2753
610.53	0.2767
610.87	0.2775
611.20	0.2776
611.54	0.2785
611.87	0.2784
612.21	0.2795
612.54	0.2802
612.88	0.2804
613.21	0.2819
613.55	0.2826
613.88	0.2828
614.22	0.2839
614.55	0.2844
614.89	0.2849
615.22	0.2853
615.56	0.2857
615.89	0.2871
616.23	0.2874
616.56	0.2883
616.90	0.2893
617.23	0.2898
617.57	0.2906
617.90	0.2910
618.24	0.2917
618.57	0.2929
618.90	0.2934
619.24	0.2936
619.57	0.2948
619.91	0.2952
620.24	0.2955
620.58	0.2968
620.91	0.2978
621.24	0.2981
621.58	0.2987
621.91	0.2991
622.25	0.3003
622.58	0.2998
622.91	0.3014
623.25	0.3034
623.58	0.3027
623.91	0.3035
624.25	0.3046
624.58	0.3054
624.92	0.3054
625.25	0.3059
625.58	0.3068
625.92	0.3078
626.25	0.3080
626.58	0.3098
626.92	0.3101
627.25	0.3112
627.58	0.3105
627.91	0.3114
628.25	0.3127
628.58	0.3141
628.91	0.3142
629.25	0.3152
629.58	0.3157
629.91	0.3157
630.25	0.3169
630.58	0.3177
630.91	0.3181
631.24	0.3189
631.58	0.3195
631.91	0.3200
632.24	0.3209
632.57	0.3214
632.91	0.3225
633.24	0.3227
633.57	0.3238
633.90	0.3244
634.24	0.3255
634.57	0.3260
634.90	0.3267
635.23	0.3277
635.56	0.3279
635.90	0.3295
636.23	0.3296
636.56	0.3304
636.89	0.3308
637.22	0.3313
637.56	0.3325
637.89	0.3324
638.22	0.3342
638.55	0.3339
638.88	0.3348
639.21	0.3355
639.55	0.3360
639.88	0.3369
640.21	0.3376
640.54	0.3380
640.87	0.3391
641.20	0.3398
641.53	0.3408
641.87	0.3411
642.20	0.3413
642.53	0.3429
642.86	0.3436
643.19	0.3444
643.52	0.3450
643.85	0.3455
644.18	0.3461
644.51	0.3465
644.84	0.3472
645.18	0.3482
645.51	0.3494
645.84	0.3494
646.17	0.3506
646.50	0.3506
646.83	0.3517
647.16	0.3530
647.49	0.3536
647.82	0.3540
648.15	0.3549
648.48	0.3554
648.81	0.3558
649.14	0.3563
649.47	0.3577
649.80	0.3581
650.13	0.3588
650.46	0.3596
650.79	0.3607
651.12	0.3609
651.45	0.3614
651.78	0.3626
652.11	0.3633
652.44	0.3635
652.77	0.3633
653.10	0.3650
653.43	0.3653
653.76	0.3667
654.09	0.3678
654.42	0.3678
654.75	0.3685
655.08	0.3694
655.41	0.3700
655.74	0.3697
656.07	0.3718
656.39	0.3724
656.72	0.3727
657.05	0.3732
657.38	0.3747
657.71	0.3745
658.04	0.3754
658.37	0.3758
658.70	0.3774
659.03	0.3782
659.36	0.3798
659.68	0.3797
660.01	0.3810
660.34	0.3818
660.67	0.3816
661.00	0.3819
661.33	0.3825
661.66	0.3837
661.98	0.3850
662.31	0.3851
662.64	0.3860
662.97	0.3867
663.30	0.3872
663.63	0.3881
663.95	0.3885
664.28	0.3893
664.61	0.3901
664.94	0.3909
665.27	0.3915
665.59	0.3914
665.92	0.3930
666.25	0.3935
666.58	0.3939
666.91	0.3951
667.23	0.3953
667.56	0.3952
667.89	0.3961
668.22	0.3973
668.54	0.3987
668.87	0.3991
669.20	0.3995
669.53	0.4000
669.85	0.4010
670.18	0.4023
670.51	0.4018
670.83	0.4029
671.16	0.4034
671.49	0.4056
671.82	0.4056
672.14	0.4064
672.47	0.4085
672.80	0.4086
673.12	0.4081
673.45	0.4089
673.78	0.4096
674.10	0.4103
674.43	0.4105
674.76	0.4117
675.08	0.4131
675.41	0.4135
675.74	0.4148
676.06	0.4161
676.39	0.4161
676.72	0.4162
677.04	0.4175
677.37	0.4166
677.69	0.4175
678.02	0.4182
678.35	0.4195
678.67	0.4214
679.00	0.4209
679.32	0.4221
679.65	0.4226
679.98	0.4244
680.30	0.4228
680.63	0.4242
680.95	0.4252
681.28	0.4260
681.60	0.4263
681.93	0.4277
682.26	0.4284
682.58	0.4287
682.91	0.4300
683.23	0.4294
683.56	0.4300
683.88	0.4315
684.21	0.4327
684.53	0.4331
684.86	0.4338
685.18	0.4347
685.51	0.4346
685.83	0.4362
686.16	0.4369
686.48	0.4389
686.81	0.4384
687.13	0.4395
687.46	0.4404
687.78	0.4395
688.11	0.4412
688.43	0.4422
688.76	0.4428
689.08	0.4429
689.41	0.4444
689.73	0.4432
690.05	0.4449
690.38	0.4454
690.70	0.4471
691.03	0.4471
691.35	0.4475
691.68	0.4506
692.00	0.4499
692.32	0.4506
692.65	0.4512
692.97	0.4506
693.29	0.4524
693.62	0.4524
693.94	0.4534
694.27	0.4530
694.59	0.4538
694.91	0.4567
695.24	0.4560
695.56	0.4575
695.88	0.4565
696.21	0.4584
696.53	0.4577
696.85	0.4595
697.18	0.4604
697.50	0.4605
697.82	0.4606
698.15	0.4619
698.47	0.4622
698.79	0.4648
699.12	0.4663
699.44	0.4653
699.76	0.4662
700.09	0.4668
700.41	0.4669
700.73	0.4685
701.05	0.4686
701.38	0.4689
701.70	0.4703
702.02	0.4701
702.34	0.4730
702.67	0.4718
702.99	0.4724
703.31	0.4728
703.63	0.4750
703.96	0.4757
704.28	0.4772
704.60	0.4766
704.92	0.4752
705.25	0.4780
705.57	0.4791
705.89	0.4791
706.21	0.4794
706.53	0.4792
706.86	0.4820
707.18	0.4839
707.50	0.4832
707.82	0.4828
708.14	0.4848
708.46	0.4847
708.79	0.4861
709.11	0.4871
709.43	0.4869
709.75	0.4867
710.07	0.4889
710.39	0.4893
710.71	0.4912
711.04	0.4905
711.36	0.4907
711.68	0.4921
712.00	0.4923
712.32	0.4931
712.64	0.4947
712.96	0.4956
713.28	0.4959
713.60	0.4958
713.92	0.4970
714.24	0.4975
714.57	0.4968
714.89	0.4983
715.21	0.5000
715.53	0.4993
715.85	0.4999
716.17	0.4999
716.49	0.5014
716.81	0.5024
717.13	0.5027
717.45	0.5034
717.77	0.5043
718.09	0.5050
718.41	0.5049
718.73	0.5064
719.05	0.5078
719.37	0.5082
719.69	0.5076
720.01	0.5086
720.33	0.5095
720.65	0.5097
720.97	0.5113
721.29	0.5121
721.61	0.5140
721.93	0.5135
722.25	0.5135
722.57	0.5157
722.89	0.5156
723.21	0.5163
723.52	0.5170
723.84	0.5151
724.16	0.5172
724.48	0.5194
724.80	0.5199
725.12	0.5191
725.44	0.5215
725.76	0.5215
726.08	0.5222
726.40	0.5243
726.72	0.5232
727.03	0.5252
727.35	0.5250
727.67	0.5255
727.99	0.5267
728.31	0.5274
728.63	0.5277
728.95	0.5288
729.26	0.5294
729.58	0.5286
729.90	0.5292
730.22	0.5315
730.54	0.5328
730.86	0.5339
731.17	0.5326
731.49	0.5334
731.81	0.5331
732.13	0.5344
732.45	0.5361
732.76	0.5361
733.08	0.5366
733.40	0.5378
733.72	0.5398
734.03	0.5403
734.35	0.5398
734.67	0.5405
734.99	0.5411
735.30	0.5418
735.62	0.5428
735.94	0.5427
736.26	0.5445
736.57	0.5448
736.89	0.5464
737.21	0.5457
737.53	0.5468
737.84	0.5478
738.16	0.5484
738.48	0.5474
738.79	0.5479
739.11	0.5496
739.43	0.5503
739.74	0.5518
740.06	0.5517
740.38	0.5534
740.69	0.5530
741.01	0.5528
741.33	0.5549
741.64	0.5566
741.96	0.5530
742.28	0.5549
742.59	0.5574
742.91	0.5582
743.23	0.5578
743.54	0.5592
743.86	0.5607
744.17	0.5592
744.49	0.5623
744.81	0.5622
745.12	0.5616
745.44	0.5638
745.75	0.5630
746.07	0.5619
746.38	0.5645
746.70	0.5655
747.02	0.5659
747.33	0.5685
747.65	0.5665
747.96	0.5676
748.28	0.5690
748.59	0.5708
748.91	0.5689
749.22	0.5721
749.54	0.5717
749.85	0.5739
750.17	0.5731
750.48	0.5726
750.80	0.5734
751.11	0.5736
751.43	0.5773
751.74	0.5730
752.06	0.5757
752.37	0.5774
752.69	0.5768
753.00	0.5783
753.32	0.5781
753.63	0.5807
753.95	0.5780
754.26	0.5789
754.58	0.5817
754.89	0.5835
755.20	0.5827
755.52	0.5822
755.83	0.5851
756.15	0.5848
756.46	0.5839
756.78	0.5847
757.09	0.5874
757.40	0.5870
757.72	0.5906
758.03	0.5884
758.34	0.5904
758.66	0.5887
758.97	0.5895
759.29	0.5923
759.60	0.5917
759.91	0.5926
760.23	0.5948
760.54	0.5936
760.85	0.5949
761.17	0.5935
761.48	0.5964
761.79	0.5948
762.11	0.5974
762.42	0.5974
762.73	0.5993
763.05	0.5986
763.36	0.5985
763.67	0.6008
763.98	0.6012
764.30	0.6021
764.61	0.6037
764.92	0.6047
765.23	0.6034
765.55	0.6046
765.86	0.6058
766.17	0.6052
766.48	0.6069
766.80	0.6070
767.11	0.6070
767.42	0.6104
767.73	0.6097
768.05	0.6116
768.36	0.6073
768.67	0.6090
768.98	0.6099
769.29	0.6150
769.61	0.6118
769.92	0.6157
770.23	0.6159
770.54	0.6145
770.85	0.6139
771.17	0.6146
771.48	0.6139
771.79	0.6156
772.10	0.6188
772.41	0.6197
772.72	0.6168
773.03	0.6187
773.35	0.6189
773.66	0.6225
773.97	0.6214
774.28	0.6209
774.59	0.6211
774.90	0.6204
775.21	0.6227
775.52	0.6262
775.83	0.6246
776.15	0.6247
776.46	0.6271
776.77	0.6273
777.08	0.6287
777.39	0.6294
777.70	0.6315
778.01	0.6299
778.32	0.6304
778.63	0.6298
778.94	0.6301
779.25	0.6317
779.56	0.6327
779.87	0.6327
780.18	0.6330
780.49	0.6357
780.80	0.6367
781.11	0.6340
781.42	0.6309
781.73	0.6342
782.04	0.6340
782.35	0.6366
782.66	0.6381
782.97	0.6365
783.28	0.6392
783.59	0.6398
783.90	0.6443
784.21	0.6425
784.52	0.6418
784.83	0.6435
785.14	0.6426
785.45	0.6443
785.76	0.6447
786.06	0.6447
786.37	0.6425
786.68	0.6435
786.99	0.6437
787.30	0.6450
787.61	0.6456
787.92	0.6471
788.23	0.6491
788.54	0.6504
788.84	0.6484
789.15	0.6502
789.46	0.6495
789.77	0.6512
790.08	0.6508
790.39	0.6539
790.70	0.6528
791.00	0.6514
791.31	0.6575
791.62	0.6584
791.93	0.6559
792.24	0.6565
792.54	0.6570
792.85	0.6575
793.16	0.6550
793.47	0.6584
793.78	0.6584
794.08	0.6582
794.39	0.6607
794.70	0.6605
795.01	0.6584
795.31	0.6579
795.62	0.6641
795.93	0.6616
796.24	0.6633
796.54	0.6614
796.85	0.6621
797.16	0.6697
797.47	0.6708
797.77	0.6655
798.08	0.6649
798.39	0.6681
798.69	0.6699
799.00	0.6679
799.31	0.6667
799.62	0.6667
799.92	0.6678
800.23	0.6682
800.54	0.6687
800.84	0.6700
801.15	0.6703
801.46	0.6745
801.76	0.6765
802.07	0.6759
802.37	0.6769
802.68	0.6745
802.99	0.6757
803.29	0.6745
803.60	0.6776
803.91	0.6764
804.21	0.6782
804.52	0.6828
804.82	0.6787
805.13	0.6785
805.44	0.6803
805.74	0.6790
806.05	0.6847
806.35	0.6843
806.66	0.6824
806.96	0.6812
807.27	0.6862
807.57	0.6834
807.88	0.6840
808.19	0.6860
808.49	0.6864
808.80	0.6883
809.10	0.6835
809.41	0.6881
809.71	0.6888
810.02	0.6913
810.32	0.6903
810.63	0.6914
810.93	0.6916
811.24	0.6864
811.54	0.6942
811.85	0.6953
812.15	0.6906
812.45	0.6919
812.76	0.6941
813.06	0.6956
813.37	0.6939
813.67	0.6925
813.98	0.6964
814.28	0.6941
814.58	0.6979
814.89	0.6996
815.19	0.6983
815.50	0.6992
815.80	0.6985
816.11	0.7007
816.41	0.7056
816.71	0.7034
817.02	0.7016
817.32	0.6987
817.62	0.7041
817.93	0.7079
818.23	0.6998
818.53	0.7060
818.84	0.7056
819.14	0.7028
819.44	0.7079
819.75	0.7072
820.05	0.7025
820.35	0.7082
820.66	0.7127
820.96	0.7075
821.26	0.7134
821.57	0.7106
821.87	0.7074
822.17	0.7114
822.48	0.7139
822.78	0.7160
823.08	0.7148
823.38	0.7103
823.69	0.7153
823.99	0.7095
824.29	0.7135
824.59	0.7194
824.90	0.7190
825.20	0.7146
825.50	0.7165
825.80	0.7168
826.10	0.7174
826.41	0.7199
826.71	0.7219
827.01	0.7207
827.31	0.7197
827.61	0.7237
827.92	0.7215
828.22	0.7232
828.52	0.7177
828.82	0.7263
829.12	0.7218
829.42	0.7224
829.73	0.7235
830.03	0.7254
830.33	0.7263
830.63	0.7258
830.93	0.7236
831.23	0.7175
831.53	0.7285
831.83	0.7315
832.14	0.7284
832.44	0.7289
832.74	0.7337
833.04	0.7356
833.34	0.7314
833.64	0.7335
833.94	0.7295
834.24	0.7310
834.54	0.7264
834.84	0.7319
835.14	0.7348
835.44	0.7335
835.74	0.7357
836.04	0.7286
836.34	0.7389
836.64	0.7365
836.95	0.7291
837.25	0.7370
837.55	0.7377
837.85	0.7384
838.15	0.7400
838.45	0.7413
838.74	0.7346
839.04	0.7365
839.34	0.7360
839.64	0.7388
839.94	0.7463
840.24	0.7419
840.54	0.7406
840.84	0.7445
841.14	0.7420
841.44	0.7403
841.74	0.7472
842.04	0.7503
842.34	0.7415
842.64	0.7392
842.94	0.7521
843.24	0.7593
843.53	0.7511
843.83	0.7473
844.13	0.7431
844.43	0.7516
844.73	0.7560
845.03	0.7476
845.33	0.7457
845.63	0.7543
845.92	0.7505
846.22	0.7487
846.52	0.7509
846.82	0.7549
847.12	0.7489
847.42	0.7546
847.71	0.7482
848.01	0.7537
848.31	0.7507
848.61	0.7549
848.91	0.7527
849.20	0.7587
849.50	0.7550
849.80	0.7568
850.10	0.7585
850.39	0.7518
850.69	0.7673
850.99	0.7550
851.29	0.7688
851.59	0.7618
851.88	0.7631
852.18	0.7543
852.48	0.7640
852.77	0.7568
853.07	0.7606
853.37	0.7680
853.67	0.7626
853.96	0.7637
854.26	0.7620
854.56	0.7647
854.85	0.7728
855.15	0.7679
855.45	0.7606
855.74	0.7649
856.04	0.7685
856.34	0.7650
856.63	0.7610
856.93	0.7639
857.23	0.7732
857.52	0.7664
857.82	0.7663
858.11	0.7733
858.41	0.7675
858.71	0.7677
859.00	0.7680
859.30	0.7704
859.59	0.7697
859.89	0.7684
860.19	0.7707
860.48	0.7695
860.78	0.7746
861.07	0.7729
861.37	0.7788
861.66	0.7812
861.96	0.7718
862.26	0.7789
862.55	0.7748
862.85	0.7809
863.14	0.7795
863.44	0.7807
863.73	0.7790
864.03	0.7735
864.32	0.7708
864.62	0.7800
864.91	0.7804
865.21	0.7830
865.50	0.7854
865.80	0.7818
866.09	0.7841
866.39	0.7866
866.68	0.7884
866.97	0.7828
867.27	0.7776
867.56	0.7809
867.86	0.7910
868.15	0.7858
868.45	0.7988
868.74	0.7794
869.03	0.7863
869.33	0.7871
869.62	0.7856
869.92	0.7904
870.21	0.7879
870.50	0.7815
870.80	0.7821
871.09	0.7805
871.39	0.7861
871.68	0.8003
871.97	0.7932
872.27	0.7971
872.56	0.7963
872.85	0.8103
873.15	0.7917
873.44	0.7932
873.73	0.7917
874.03	0.7957
874.32	0.7953
874.61	0.7923
874.90	0.7884
875.20	0.7977
875.49	0.7934
875.78	0.7949
>>>>>End Spectral Data<<<<<
